File: Polymers lab/2/DSC/!^ESERC  PLA pent press L=77,1.txt
              0              0      0.0236884              0      0.0109441
             14             14        4.25357        4.66667      -0.192334
             28             28        8.40414        9.33333      -0.436042
             42             42        12.9102             14      -0.515536
             56             56        17.5448        18.6667      -0.535079
             70             70        22.2072        23.3333      -0.541603
             84             84        26.8704             28      -0.547858
             98             98        31.5328        32.6667      -0.554707
            112            112        36.1923        37.3333      -0.563131
            126            126        40.8466             42      -0.574334
            140            140        45.4958        46.6667       -0.58831
            154            154        50.1301        51.3333      -0.610142
            168            168        54.7613             56      -0.634068
            182            182        59.3968        60.6667      -0.656179
            196            196        64.0363        65.3333      -0.676743
            210            210         68.686             70      -0.692326
            224            224        73.3459        74.6667      -0.702826
            238            238        78.0056        79.3333      -0.713702
            252            252        82.6634             84       -0.72588
            266            266        87.3192        88.6667      -0.739462
            280            280        91.9725        93.3333      -0.754688
            294            294        96.6247             98      -0.770937
            308            308        101.267        102.667      -0.787386
            322            322        105.905        107.333      -0.802605
            336            336        110.546            112      -0.816074
            350            350         115.19        116.667      -0.828286
            364            364        119.833        121.333      -0.841173
            378            378        124.467            126      -0.859551
            392            392        129.071        130.667      -0.895329
            406            406        133.656        135.333      -0.941647
            420            420        138.238            140      -0.990158
            434            434        142.783        144.667       -1.05934
            448            448        147.227        149.333       -1.18673
            462            462        151.754            154       -1.26787
            476            476          156.5        158.667       -1.22544
            490            490        161.482        163.333       -1.04985
            504            504        166.374            168      -0.924601
            518            518        171.155        172.667      -0.862246
            532            532        175.885        177.333      -0.829366
            546            546         180.59            182      -0.810347
            560            560        185.281        186.667       -0.79962
            574            574        189.964        191.333      -0.793939
            588            588         194.64            196      -0.791963
            602            602        198.337        199.333      -0.582642
            616            616        194.886        194.667       0.127325
            630            630        190.942            190       0.545321
            644            644        186.728        185.333       0.804043
            658            658        182.123        180.667       0.836266
            672            672        177.374            176       0.785633
            686            686        172.709        171.333         0.7841
            700            700        168.044        166.667       0.782851
            714            714        163.394            162       0.790055
            728            728        158.721        157.333       0.784395
            742            742        154.048        152.667       0.779389
            756            756        149.379            148        0.77654
            770            770        144.709        143.333       0.773291
            784            784        140.047        138.667       0.775307
            798            798        135.381            134       0.774829
            812            812        130.704        129.333       0.769058
            826            826        126.018        124.667       0.757786
            840            840        121.357            120       0.761176
            854            854        116.693        115.333       0.763058
            868            868        112.021        110.667        0.76069
            882            882        107.351            106       0.759195
            896            896         102.68        101.333       0.758189
            910            910        98.0128        96.6667       0.752269
            924            924        93.3529             92       0.748036
            938            938        88.7041        87.3333       0.750003
            952            952        84.0486        82.6667       0.748323
            966            966        79.3907             78       0.745431
            980            980        74.7287        73.3333       0.740432
            994            994        70.0681        68.6667       0.736316
           1008           1008         65.422             64       0.739904
           1022           1022         60.755        59.3333        0.73265
           1036           1036        56.0762        54.6667       0.719563
           1050           1050        51.3599             50        0.68779
           1064           1064        46.6071        45.3333       0.638352
           1078           1078        41.8825        40.6667       0.603877
           1092           1092        37.1871             36       0.584367
           1106           1106        32.4999        31.3333       0.569264
           1120           1120        27.8261        26.6667       0.560992
           1134           1134        23.1455             22       0.549592
           1148           1148        18.4754        17.3333       0.543406
           1162           1162        13.8139        12.6667       0.541463
           1176           1176        9.14181              8       0.534606
           1190           1190        4.46145        3.33333       0.524069
           1204           1204         2.0222        1.33333       0.318958
           1218           1218        5.70176              6      -0.139167
           1232           1232        9.84701        10.6667       -0.38552
           1246           1246        14.3248        15.3333      -0.478215
           1260           1260        18.9327             20       -0.51025
           1274           1274        23.5825        24.6667      -0.522657
           1288           1288        28.2415        29.3333      -0.530851
           1302           1302        32.9059             34      -0.536601
           1316           1316        37.5711        38.6667      -0.542039
           1330           1330        42.2361        43.3333      -0.547736
           1344           1344        46.8984             48      -0.554976
           1358           1358         51.551        52.6667      -0.567251
           1372           1372        56.1752        57.3333       -0.59443
           1386           1386        60.7125             62      -0.667155
           1400           1400        65.3053        66.6667      -0.712304
           1414           1414        69.9686        71.3333      -0.721099
           1428           1428        74.6395             76      -0.726085
           1442           1442        79.3125        80.6667      -0.730053
           1456           1456         83.988        85.3333       -0.73278
           1470           1470        88.6648             90      -0.734929
           1484           1484        93.3414        94.6667      -0.737236
           1498           1498        98.0187        99.3333      -0.739248
           1512           1512        102.686            104      -0.739328
           1526           1526        107.357        108.667      -0.735864
           1540           1540        112.038        113.333      -0.726763
           1554           1554        116.736            118       -0.70924
           1568           1568        121.443        122.667      -0.686434
           1582           1582        126.147        127.333      -0.665517
           1596           1596        130.826            132      -0.658664
           1610           1610         135.47        136.667      -0.671728
           1624           1624         140.09        141.333      -0.698502
           1638           1638        144.688            146      -0.738032
           1652           1652        149.119        150.667      -0.872366
           1666           1666        153.626        155.333      -0.964357
           1680           1680        158.443            160      -0.881585
           1694           1694        163.238        164.667       -0.81067
           1708           1708        167.954        169.333      -0.785245
           1722           1722        172.637            174      -0.778454
           1736           1736         177.31        178.667      -0.777398
           1750           1750        181.981        183.333      -0.778023
           1764           1764        186.652            188      -0.778846
           1778           1778        191.323        192.667      -0.780057
           1792           1792        195.994        197.333      -0.781554
           1799           1799        198.329        199.667      -0.782146

________________________________________________________________________________
Not signed                                                        STARe SW 12.00