File: Polymers lab/2/DSC/!^ESERC bicchiere PP  L=66,5.txt
              0              0      0.0276192              0      0.0249403
             14             14        4.43617        4.66667      -0.209752
             28             28        8.83098        9.33333      -0.460761
             42             42        13.4354             14      -0.522041
             56             56        18.0979        18.6667      -0.530208
             70             70        22.7636        23.3333      -0.535513
             84             84        27.4272             28      -0.543042
             98             98        32.0897        32.6667      -0.551667
            112            112        36.7513        37.3333      -0.561443
            126            126         41.412             42      -0.572215
            140            140        46.0716        46.6667      -0.584435
            154            154        50.7291        51.3333      -0.598898
            168            168         55.385             56      -0.615246
            182            182        60.0415        60.6667      -0.631433
            196            196        64.7004        65.3333      -0.645485
            210            210         69.363             70      -0.656022
            224            224        74.0286        74.6667      -0.663656
            238            238        78.6951        79.3333      -0.670618
            252            252        83.3618             84      -0.677438
            266            266        88.0278        88.6667      -0.685207
            280            280        92.6923        93.3333      -0.694846
            294            294        97.3558             98      -0.705801
            308            308        102.013        102.667       -0.71849
            322            322        106.666        107.333      -0.733067
            336            336        111.316            112      -0.750587
            350            350        115.968        116.667       -0.76654
            364            364        120.621        121.333       -0.78084
            378            378        125.271            126      -0.798796
            392            392        129.915        130.667      -0.823617
            406            406        134.552        135.333      -0.856908
            420            420        139.184            140      -0.896292
            434            434         143.81        144.667      -0.941728
            448            448         148.42        149.333       -1.00559
            462            462        152.995            154       -1.10898
            476            476        157.491        158.667        -1.2994
            490            490        161.771        163.333       -1.73201
            504            504        165.891            168       -2.34426
            518            518        170.765        172.667       -2.12038
            532            532        176.207        177.333       -1.26059
            546            546        181.177            182      -0.923958
            560            560        185.928        186.667       -0.83267
            574            574        190.618        191.333      -0.810083
            588            588        195.293            196      -0.805195
            602            602        198.868        199.333      -0.532225
            616            616        194.909        194.667       0.275418
            630            630        190.589            190       0.666125
            644            644        186.192        185.333       0.967476
            658            658        181.513        180.667       0.949295
            672            672        176.734            176       0.820185
            686            686        172.078        171.333       0.829827
            700            700        167.423        166.667       0.839859
            714            714        162.751            162       0.831346
            728            728        158.083        157.333       0.828246
            742            742        153.415        152.667       0.824828
            756            756        148.744            148       0.819013
            770            770        144.074        143.333       0.814379
            784            784        139.403        138.667       0.808753
            798            798        134.735            134        0.80613
            812            812         130.07        129.333       0.807758
            826            826        125.386        124.667       0.788607
            840            840        120.718            120       0.786954
            854            854         116.08        115.333       0.818588
            868            868        111.965        110.667        1.42537
            882            882        108.725            106        2.99406
            896            896        103.669        101.333        2.56998
            910            910        98.0395        96.6667        1.49953
            924            924        92.9291             92        1.00411
            938            938        88.1093        87.3333       0.829842
            952            952        83.3781        82.6667       0.752925
            966            966         78.693             78       0.726004
            980            980        74.0249        73.3333       0.717283
            994            994        69.3506        68.6667       0.702318
           1008           1008        64.6777             64       0.689174
           1022           1022         60.005        59.3333       0.676502
           1036           1036         55.331        54.6667        0.66289
           1050           1050        50.6595             50        0.65197
           1064           1064        45.9965        45.3333       0.649575
           1078           1078        41.3234        40.6667       0.637524
           1092           1092        36.6503             36       0.625709
           1106           1106        31.9767        31.3333       0.613665
           1120           1120        27.3045        26.6667       0.603195
           1134           1134        22.6315             22       0.592223
           1148           1148         17.959        17.3333       0.581851
           1162           1162        13.2896        12.6667       0.574615
           1176           1176        8.61751              8       0.565102
           1190           1190        3.94195        3.33333       0.552615
           1204           1204        1.70599        1.33333       0.337248
           1218           1218        5.83925              6      -0.146614
           1232           1232        10.2189        10.6667      -0.411638
           1246           1246         14.788        15.3333      -0.505426
           1260           1260        19.4255             20      -0.536807
           1274           1274         24.081        24.6667      -0.551876
           1288           1288        28.7412        29.3333      -0.562698
           1302           1302        33.4038             34      -0.571513
           1316           1316        38.0676        38.6667      -0.579355
           1330           1330        42.7323        43.3333      -0.586455
           1344           1344        47.3965             48      -0.594237
           1358           1358        52.0597        52.6667      -0.603198
           1372           1372        56.7226        57.3333      -0.612688
           1386           1386         61.385             62      -0.622851
           1400           1400         66.047        66.6667      -0.633709
           1414           1414         70.709        71.3333      -0.644797
           1428           1428        75.3716             76      -0.655537
           1442           1442        80.0339        80.6667      -0.666741
           1456           1456        84.6964        85.3333      -0.678135
           1470           1470        89.3583             90       -0.69035
           1484           1484        94.0192        94.6667      -0.704002
           1498           1498        98.6795        99.3333      -0.718601
           1512           1512         103.33            104      -0.736751
           1526           1526        107.977        108.667      -0.757272
           1540           1540        112.625        113.333      -0.776652
           1554           1554        117.273            118      -0.796731
           1568           1568        121.919        122.667       -0.81964
           1582           1582        126.562        127.333      -0.845481
           1596           1596          131.2            132      -0.877354
           1610           1610        135.829        136.667      -0.919026
           1624           1624        140.448        141.333       -0.97304
           1638           1638        145.046            146        -1.0496
           1652           1652        149.614        150.667       -1.16018
           1666           1666        154.116        155.333       -1.34394
           1680           1680        158.429            160       -1.73862
           1694           1694        162.795        164.667       -2.07573
           1708           1708        167.644        169.333       -1.87968
           1722           1722        172.921            174       -1.20384
           1736           1736        177.855        178.667      -0.909151
           1750           1750        182.596        183.333      -0.829714
           1764           1764        187.283            188      -0.809405
           1778           1778        191.956        192.667      -0.806539
           1792           1792        196.625        197.333      -0.807844
           1799           1799        198.959        199.667      -0.808774

________________________________________________________________________________
Not signed                                                        STARe SW 12.00