File: Polymers lab/2/DSC/!^ESERC bicchiere PS  L=71,4.txt
              0              0      0.0220871              0      0.0164032
             14             14        4.37375        4.66667      -0.219227
             28             28        8.74036        9.33333      -0.447305
             42             42        13.3429             14      -0.499689
             56             56        18.0092        18.6667      -0.504054
             70             70        22.6771        23.3333      -0.507295
             84             84        27.3426             28      -0.512506
             98             98        32.0072        32.6667      -0.518575
            112            112        36.6714        37.3333      -0.525118
            126            126        41.3356             42      -0.531768
            140            140        46.0008        46.6667      -0.537855
            154            154        50.6657        51.3333      -0.544264
            168            168        55.3309             56      -0.550536
            182            182        59.9964        60.6667      -0.556785
            196            196        64.6608        65.3333      -0.564104
            210            210        69.3232             70      -0.573246
            224            224         73.983        74.6667      -0.584802
            238            238        78.6349        79.3333      -0.603539
            252            252        83.2795             84      -0.628994
            266            266        87.9528        88.6667      -0.629726
            280            280        92.6234        93.3333      -0.632885
            294            294        97.2633             98      -0.663809
            308            308        101.897        102.667      -0.696306
            322            322         106.51        107.333      -0.744191
            336            336        111.191            112      -0.730439
            350            350        115.872        116.667      -0.717043
            364            364        120.542        121.333      -0.713044
            378            378        125.208            126      -0.714346
            392            392        129.871        130.667      -0.717883
            406            406        134.533        135.333      -0.722367
            420            420        139.195            140      -0.726571
            434            434        143.858        144.667      -0.730776
            448            448        148.522        149.333      -0.734547
            462            462        153.186            154      -0.738452
            476            476         157.85        158.667      -0.742399
            490            490        162.514        163.333      -0.746524
            504            504         167.18            168      -0.749929
            518            518        171.844        172.667      -0.754419
            532            532        176.509        177.333      -0.758689
            546            546        181.175            182       -0.76229
            560            560        185.841        186.667      -0.765861
            574            574        190.508        191.333      -0.769456
            588            588        195.175            196      -0.772355
            602            602        198.779        199.333      -0.520544
            616            616        194.905        194.667       0.223085
            630            630        190.796            190       0.740903
            644            644        186.229        185.333       0.830281
            658            658         181.53        180.667       0.796884
            672            672        176.875            176       0.804374
            686            686        172.212        171.333       0.804922
            700            700        167.541        166.667       0.798701
            714            714        162.873            162       0.794847
            728            728        158.198        157.333       0.786112
            742            742        153.523        152.667       0.776827
            756            756        148.855            148       0.773868
            770            770        144.183        143.333       0.768414
            784            784        139.509        138.667        0.76037
            798            798        134.829            134       0.747998
            812            812        130.147        129.333       0.733359
            826            826        125.491        124.667       0.743353
            840            840         120.82            120       0.739251
            854            854        116.148        115.333       0.734387
            868            868        111.477        110.667       0.731559
            882            882        106.802            106       0.724921
            896            896        102.125        101.333       0.716058
            910            910        97.4561        96.6667       0.709178
            924            924        92.7874             92       0.699808
            938            938        88.1124        87.3333       0.685153
            952            952        83.4222        82.6667       0.657627
            966            966        78.7423             78         0.6396
            980            980        74.0591        73.3333       0.619038
            994            994        69.3772        68.6667       0.600089
           1008           1008        64.7077             64       0.591899
           1022           1022        60.0356        59.3333       0.581744
           1036           1036        55.3647        54.6667        0.57282
           1050           1050        50.6963             50       0.566117
           1064           1064        46.0237        45.3333       0.556181
           1078           1078        41.3518        40.6667       0.546976
           1092           1092        36.6876             36        0.54411
           1106           1106        32.0208        31.3333       0.539313
           1120           1120        27.3486        26.6667       0.530371
           1134           1134        22.6772             22       0.522252
           1148           1148        18.0078        17.3333       0.515873
           1162           1162        13.3359        12.6667       0.507749
           1176           1176        8.66852              8       0.503152
           1190           1190        3.99913        3.33333       0.497192
           1204           1204        1.69953        1.33333       0.272554
           1218           1218        5.78285              6      -0.162886
           1232           1232        10.1525        10.6667       -0.38877
           1246           1246        14.7197        15.3333      -0.467737
           1260           1260        19.3593             20      -0.492381
           1274           1274         24.017        24.6667      -0.503467
           1288           1288        28.6798        29.3333      -0.510755
           1302           1302        33.3444             34      -0.516829
           1316           1316        38.0101        38.6667      -0.522223
           1330           1330        42.6757        43.3333      -0.527736
           1344           1344        47.3413             48      -0.533456
           1358           1358        52.0063        52.6667      -0.539736
           1372           1372         56.671        57.3333      -0.546483
           1386           1386        61.3358             62      -0.553258
           1400           1400        66.0004        66.6667      -0.560346
           1414           1414        70.6651        71.3333      -0.567539
           1428           1428        75.3291             76       -0.57555
           1442           1442        79.9918        80.6667      -0.584885
           1456           1456        84.6502        85.3333      -0.598187
           1470           1470         89.298             90      -0.621109
           1484           1484        93.9295        94.6667      -0.659215
           1498           1498        98.5687        99.3333      -0.691149
           1512           1512        103.229            104      -0.697496
           1526           1526        107.892        108.667      -0.699523
           1540           1540        112.555        113.333       -0.70204
           1554           1554        117.218            118      -0.705455
           1568           1568         121.88        122.667      -0.709385
           1582           1582        126.542        127.333      -0.713332
           1596           1596        131.204            132      -0.717759
           1610           1610        135.867        136.667      -0.722088
           1624           1624         140.53        141.333      -0.726084
           1638           1638        145.193            146      -0.730408
           1652           1652        149.856        150.667      -0.734806
           1666           1666        154.519        155.333      -0.739028
           1680           1680        159.183            160       -0.74304
           1694           1694        163.848        164.667      -0.746706
           1708           1708        168.513        169.333      -0.750522
           1722           1722        173.178            174      -0.754677
           1736           1736        177.843        178.667      -0.759207
           1750           1750        182.508        183.333      -0.762885
           1764           1764        187.175            188      -0.766638
           1778           1778        191.841        192.667      -0.770447
           1792           1792        196.508        197.333      -0.773935
           1799           1799        198.842        199.667      -0.775054

________________________________________________________________________________
Not signed                                                        STARe SW 12.00