File: Polymers lab/2/DSC/!^PME2019G1 PET tq L=71,5.txt
              0              0      0.0173851              0       0.013033
             21             21        6.69613              7      -0.230471
             42             42        13.4874             14      -0.393485
             63             63        20.4831             21      -0.401683
             84             84        27.4832             28      -0.406702
            105            105        34.4805             35      -0.414173
            126            126        41.4769             42      -0.422629
            147            147        48.4784             49      -0.427181
            168            168        55.4892             56      -0.424264
            189            189        62.4936             63      -0.426681
            210            210        69.4854             70      -0.439919
            231            231        76.4464             77      -0.480457
            252            252        83.3857             84      -0.541393
            273            273        90.3755             91      -0.559017
            294            294        97.3823             98      -0.561866
            315            315        104.383            105      -0.562524
            336            336        111.384            112      -0.560853
            357            357        118.385            119       -0.55945
            378            378        125.395            126      -0.550821
            399            399        132.419            133      -0.528687
            420            420        139.811            140      -0.172573
            441            441        146.869            147      -0.119745
            462            462        153.547            154      -0.414911
            483            483        160.436            161      -0.518748
            504            504        167.402            168      -0.552093
            525            525         174.39            175       -0.56557
            546            546        181.382            182      -0.575956
            567            567        188.377            189      -0.584256
            588            588        195.371            196      -0.594386
            609            609        202.363            203      -0.607397
            630            630        209.355            210      -0.619738
            651            651        216.346            217      -0.634582
            672            672        223.332            224      -0.655428
            693            693        230.291            231      -0.703411
            714            714        237.201            238      -0.801955
            735            735        244.042            245      -0.974917
            756            756        250.841            252       -1.19626
            777            777        258.119            259      -0.923168
            798            798        265.353            266      -0.688743
            819            819        272.398            273      -0.651875
            840            840        279.413            280      -0.647436
            861            861        286.426            287      -0.646274
            882            882        293.437            294      -0.647178
            903            903        298.591            299      -0.477889
            924            924        292.372            292       0.424607
            945            945        285.595            285       0.665881
            966            966        278.631            278       0.692404
            987            987        271.623            271       0.671331
           1008           1008        264.589            264       0.624655
           1029           1029        257.565            257          0.589
           1050           1050         250.54            250       0.554471
           1071           1071        243.516            243       0.523106
           1092           1092        236.495            236       0.495218
           1113           1113        229.476            229        0.47053
           1134           1134        222.458            222       0.448194
           1155           1155        215.442            215       0.427602
           1176           1176        208.426            208       0.408381
           1197           1197        201.411            201       0.390622
           1218           1218        194.397            194        0.37444
           1239           1239        187.383            187       0.359161
           1260           1260         180.37            180       0.344864
           1281           1281        173.358            173       0.331737
           1302           1302        166.347            166        0.31985
           1323           1323        159.337            159       0.309466
           1344           1344         152.33            152       0.302021
           1365           1365         145.33            145       0.301065
           1386           1386        138.351            138       0.319815
           1407           1407         131.42            131         0.3822
           1428           1428        124.556            124       0.505975
           1449           1449        117.686            117       0.624476
           1470           1470        110.673            110       0.613124
           1491           1491        103.524            103       0.478152
           1512           1512         96.391             96       0.353982
           1533           1533        89.3234             89       0.288153
           1554           1554        82.2925             82        0.25662
           1575           1575        75.2761             75       0.238592
           1596           1596        68.2665             68       0.226929
           1617           1617        61.2607             61       0.218748
           1638           1638        54.2565             54       0.212146
           1659           1659        47.2535             47       0.206801
           1680           1680        40.2511             40       0.202089
           1701           1701        33.2488             33       0.197659
           1722           1722        26.2471             26       0.193789
           1743           1743         19.246             19       0.190477
           1764           1764        12.2451             12       0.187466
           1785           1785        5.24408              5       0.184498
           1806           1806         2.2394              2       0.180062
           1827           1827        9.22788              9       0.173425
           1848           1848        16.2164             16       0.166659
           1869           1869        23.2063             23        0.16092
           1890           1890        30.2013             30       0.159002
           1911           1911        37.1952             37       0.156247
           1932           1932        44.1832             44       0.148585
           1953           1953        51.1721             51       0.141494
           1974           1974        58.1637             58       0.136481
           1995           1995        65.1599             65       0.135244
           2016           2016        72.1532             72       0.131511
           2037           2037        79.1444             79       0.125833
           2058           2058        86.1373             86       0.121567
           2079           2079        93.1309             93       0.117677
           2100           2100        100.126            100       0.114756
           2121           2121        107.123            107       0.112173
           2142           2142        114.121            114        0.10997
           2163           2163        120.977            121       -0.02103
           2184           2184        127.495            128      -0.459966
           2205           2205        134.335            135      -0.605849
           2226           2226        141.322            142      -0.618684
           2247           2247        148.332            149      -0.610939
           2268           2268        155.338            156      -0.606801
           2289           2289        162.339            163      -0.608227
           2310           2310        169.336            170       -0.61396
           2331           2331        176.327            177      -0.624824
           2352           2352        183.319            184      -0.635831
           2373           2373        190.322            191      -0.637436
           2394           2394         197.33            198      -0.634867
           2415           2415         204.33            205      -0.639988
           2436           2436        211.322            212      -0.653837
           2457           2457          218.3            219      -0.681267
           2478           2478        225.261            226       -0.72724
           2499           2499        232.183            233      -0.813281
           2520           2520        239.082            240      -0.925047
           2541           2541        245.975            247       -1.04732
           2562           2562        252.983            254       -1.05413
           2583           2583          260.3            261      -0.736393
           2604           2604        267.385            268      -0.657552
           2625           2625        274.404            275      -0.649294
           2646           2646        281.415            282      -0.648938
           2667           2667        288.426            289      -0.650293
           2688           2688        295.437            296      -0.651107
           2699           2699         299.11        299.667       -0.65162

________________________________________________________________________________
Not signed                                                        STARe SW 12.00