File: Polymers lab/2/TGA/ESERCITAZIONI MARZO PNEUMATICO MARANGONI.txt
.003733334 25.24162 10.05957 0.0000000 0.0000000 0.0000000 0.0000000 0.0000000 25.24162 10.05957 10.00012 9.998238 10.05914 25.31174 22.20871 0.0000000 1.163537 2.63039E-4
1.145834 35.47725 10.05931 0.0000000 0.0000000 0.0000000 0.0000000 0.0000000 35.47725 10.05931 10.00165 9.997322 10.05936 35.23641 15.60643 15.72260 4.114498 -3.1558E-4
2.295834 47.14170 10.05932 0.0000000 0.0000000 0.0000000 0.0000000 0.0000000 47.14170 10.05932 9.983905 9.991234 10.05922 46.57760 14.92709 15.18270 4.087382 5.13982E-4
3.445834 58.69125 10.05852 0.0000000 0.0000000 0.0000000 0.0000000 0.0000000 58.69125 10.05852 9.974957 9.993682 10.05838 57.83000 16.05329 16.34030 4.238154 7.59287E-4
4.595833 70.19868 10.05703 0.0000000 0.0000000 0.0000000 0.0000000 0.0000000 70.19868 10.05703 9.981915 10.00734 10.05675 69.06076 17.98728 17.58630 4.387424 .001770528
5.745834 81.68957 10.05453 0.0000000 0.0000000 0.0000000 0.0000000 0.0000000 81.68957 10.05453 9.992462 10.00220 10.05406 80.28394 19.41014 19.41340 4.542957 .002645466
6.895834 93.16653 10.05073 0.0000000 0.0000000 0.0000000 0.0000000 0.0000000 93.16653 10.05073 10.00972 10.01428 10.05000 91.50747 21.23278 21.46810 4.691172 .003828166
8.045834 104.6419 10.04575 0.0000000 0.0000000 0.0000000 0.0000000 0.0000000 104.6419 10.04575 9.984794 10.00770 10.04491 102.7317 22.85648 22.78430 4.823703 .004880756
9.195832 116.1106 10.03948 0.0000000 0.0000000 0.0000000 0.0000000 0.0000000 116.1106 10.03948 9.981512 9.997114 10.03844 113.9601 24.73214 24.77830 4.949909 .005916843
10.34583 127.5778 10.03211 0.0000000 0.0000000 0.0000000 0.0000000 0.0000000 127.5778 10.03211 10.00801 10.02733 10.03090 125.2010 26.44342 26.74160 5.061695 .006771480
11.49584 139.0455 10.02376 0.0000000 0.0000000 0.0000000 0.0000000 0.0000000 139.0455 10.02376 9.989387 10.01032 10.02233 136.4525 28.17656 28.11000 5.168598 .007915049
12.64583 150.5120 10.01393 0.0000000 0.0000000 0.0000000 0.0000000 0.0000000 150.5120 10.01393 9.987922 9.988886 10.01224 147.7139 30.04406 29.80060 5.268802 .009240871
13.79584 161.9736 10.00221 0.0000000 0.0000000 0.0000000 0.0000000 0.0000000 161.9736 10.00221 10.01263 9.969295 10.00020 158.9775 32.40410 32.17220 5.405926 0.01114043
14.94583 173.4394 9.987995 0.0000000 0.0000000 0.0000000 0.0000000 0.0000000 173.4394 9.987995 9.988944 9.958735 9.985574 170.2498 34.27696 33.88460 5.490605 0.01381452
16.09583 184.9068 9.969586 0.0000000 0.0000000 0.0000000 0.0000000 0.0000000 184.9068 9.969586 10.00930 10.01035 9.966282 181.5273 35.73935 35.77080 5.608326 0.01832023
17.24583 196.3697 9.944749 0.0000000 0.0000000 0.0000000 0.0000000 0.0000000 196.3697 9.944749 10.00234 9.999322 9.940128 192.8111 38.44817 37.73190 5.692418 0.02532214
18.39584 207.8421 9.910549 0.0000000 0.0000000 0.0000000 0.0000000 0.0000000 207.8421 9.910549 10.01585 10.00413 9.904341 204.1086 39.50366 39.85510 5.785359 0.03459728
19.54584 219.3042 9.864148 0.0000000 0.0000000 0.0000000 0.0000000 0.0000000 219.3042 9.864148 9.994582 9.994504 9.855738 215.3984 42.27918 41.99380 5.892659 0.04627840
20.69583 230.7709 9.803116 0.0000000 0.0000000 0.0000000 0.0000000 0.0000000 230.7709 9.803116 9.989288 9.980069 9.792199 226.6930 44.13437 43.90750 5.986065 0.06010246
21.84583 242.2356 9.724824 0.0000000 0.0000000 0.0000000 0.0000000 0.0000000 242.2356 9.724824 10.00384 9.996984 9.711051 237.9884 46.57637 46.13040 6.062160 0.07593626
22.99583 253.7031 9.628218 0.0000000 0.0000000 0.0000000 0.0000000 0.0000000 253.7031 9.628218 10.00948 9.998598 9.611670 249.2891 48.26134 48.71920 6.185390 0.09086566
24.14584 265.1665 9.516270 0.0000000 0.0000000 0.0000000 0.0000000 0.0000000 265.1665 9.516270 9.998871 9.996856 9.497531 260.5914 51.10198 50.58890 6.241146 0.1029541
25.29584 276.6346 9.388509 0.0000000 0.0000000 0.0000000 0.0000000 0.0000000 276.6346 9.388509 9.996040 10.00869 9.367688 271.9022 52.93350 53.29460 6.337521 0.1180197
26.44584 288.0952 9.244005 0.0000000 0.0000000 0.0000000 0.0000000 0.0000000 288.0952 9.244005 9.999566 9.993220 9.224074 283.2154 56.07407 55.70970 6.431860 0.1291734
27.59583 299.5575 9.096031 0.0000000 0.0000000 0.0000000 0.0000000 0.0000000 299.5575 9.096031 9.994531 10.00053 9.076205 294.5258 58.42118 58.49470 6.522176 0.1242467
28.74583 311.0222 8.958508 0.0000000 0.0000000 0.0000000 0.0000000 0.0000000 311.0222 8.958508 10.01746 9.994696 8.938539 305.8459 60.67450 60.95900 6.613256 0.1115274
29.89584 322.4836 8.845390 0.0000000 0.0000000 0.0000000 0.0000000 0.0000000 322.4836 8.845390 10.01322 10.00400 8.830194 317.1622 63.63390 63.78590 6.688946 0.08258092
31.04584 333.9415 8.768401 0.0000000 0.0000000 0.0000000 0.0000000 0.0000000 333.9415 8.768401 10.00514 10.00667 8.758582 328.4797 65.93765 66.49860 6.783040 0.05378232
32.19584 345.3980 8.715776 0.0000000 0.0000000 0.0000000 0.0000000 0.0000000 345.3980 8.715776 9.992187 10.00449 8.708394 339.7616 69.79776 69.64060 6.874531 0.04049612
33.34583 356.8500 8.672624 0.0000000 0.0000000 0.0000000 0.0000000 0.0000000 356.8500 8.672624 9.994432 10.00720 8.666215 351.0808 72.43591 72.36530 6.954343 0.03527716
34.49584 368.2968 8.633492 0.0000000 0.0000000 0.0000000 0.0000000 0.0000000 368.2968 8.633492 10.01185 9.947126 8.627420 362.3990 75.67645 75.47420 7.052442 0.03326245
35.64583 379.7927 8.488350 0.0000000 0.0000000 0.0000000 0.0000000 0.0000000 379.7927 8.488350 10.01176 9.898641 8.482819 373.7482 77.27660 78.48620 7.121472 0.3093105
36.79584 391.2497 8.132300 0.0000000 0.0000000 0.0000000 0.0000000 0.0000000 391.2497 8.132300 10.01216 10.00245 8.128882 385.1862 80.84604 80.98160 7.196394 0.2760899
37.94584 402.6460 7.821024 0.0000000 0.0000000 0.0000000 0.0000000 0.0000000 402.6460 7.821025 9.977805 9.996172 7.817340 396.4311 86.82355 85.21869 7.300436 0.2764582
39.09583 414.0411 7.462731 0.0000000 0.0000000 0.0000000 0.0000000 0.0000000 414.0411 7.462731 9.998524 10.00425 7.465687 407.6705 86.42920 87.35000 7.336561 0.3616654
40.24584 425.4711 7.018612 0.0000000 0.0000000 0.0000000 0.0000000 0.0000000 425.4711 7.018612 9.976600 10.00509 7.024487 419.0276 94.87447 96.06480 7.528516 0.4553670
41.39583 436.9704 6.436972 0.0000000 0.0000000 0.0000000 0.0000000 0.0000000 436.9704 6.436972 10.00352 10.00491 6.445090 430.4422 96.18976 97.80380 7.588239 0.5230069
42.54584 448.3798 5.830351 0.0000000 0.0000000 0.0000000 0.0000000 0.0000000 448.3798 5.830351 9.992806 9.982340 5.838844 442.0738 105.5416 99.58410 7.589994 0.5351551
43.69584 459.8244 5.210717 0.0000000 0.0000000 0.0000000 0.0000000 0.0000000 459.8244 5.210717 10.00660 10.00687 5.219724 453.4068 105.8814 104.9731 7.758437 0.5411658
44.84583 471.2252 4.614042 0.0000000 0.0000000 0.0000000 0.0000000 0.0000000 471.2252 4.614042 9.993524 9.999941 4.620674 464.6072 110.3391 109.9458 7.846007 0.4725634
45.99584 482.6147 4.184480 0.0000000 0.0000000 0.0000000 0.0000000 0.0000000 482.6147 4.184480 10.01462 10.00400 4.180880 475.7035 114.3958 115.3127 7.943511 0.2479935
47.14583 493.9864 4.032563 0.0000000 0.0000000 0.0000000 0.0000000 0.0000000 493.9864 4.032563 10.04507 10.10112 4.020847 486.9761 120.5257 120.4937 8.077239 0.06232836
48.29584 505.4273 3.993446 0.0000000 0.0000000 0.0000000 0.0000000 0.0000000 505.4273 3.993446 10.00341 9.996197 3.985654 498.3078 124.8462 124.9279 8.126890 0.04672384
49.44584 516.8360 3.863224 0.0000000 0.0000000 0.0000000 0.0000000 0.0000000 516.8360 3.863224 9.994376 9.982224 3.850672 509.5994 129.4998 130.0807 8.236532 0.2019827
50.59583 528.2292 3.592826 0.0000000 0.0000000 0.0000000 0.0000000 0.0000000 528.2292 3.592826 10.00241 9.998749 3.587192 520.8828 134.8700 134.9577 8.323530 0.2484512
51.74584 539.6176 3.292571 0.0000000 0.0000000 0.0000000 0.0000000 0.0000000 539.6176 3.292571 10.01703 10.21807 3.288886 532.1757 140.5300 140.3424 8.429769 0.2779302
52.89582 551.0142 2.939118 0.0000000 0.0000000 0.0000000 0.0000000 0.0000000 551.0142 2.939118 10.00118 9.998297 2.939618 543.4644 145.9354 146.0625 8.517730 0.3559846
54.04582 562.4039 2.461787 0.0000000 0.0000000 0.0000000 0.0000000 0.0000000 562.4039 2.461787 10.00329 9.999676 2.467563 554.7452 151.8258 151.5192 8.600782 0.4705772
55.19584 573.7914 1.872125 0.0000000 0.0000000 0.0000000 0.0000000 0.0000000 573.7914 1.872125 10.00006 10.00194 1.882006 566.0715 156.8826 156.9428 8.694205 0.5593449
56.34582 585.1286 1.236070 0.0000000 0.0000000 0.0000000 0.0000000 0.0000000 585.1286 1.236070 10.28916 10.00124 1.245032 577.4316 164.2469 164.2038 8.806418 0.5385839
57.49584 596.4560 0.6708176 0.0000000 0.0000000 0.0000000 0.0000000 0.0000000 596.4560 0.6708176 9.989579 9.904826 0.6752510 588.7919 171.0318 170.9742 8.901069 0.4370609
58.64582 607.7184 0.2796455 0.0000000 0.0000000 0.0000000 0.0000000 0.0000000 607.7184 0.2796455 9.989244 9.997006 0.2662453 599.9749 179.0840 179.3238 9.036262 0.1578789
59.79582 619.0910 0.2190414 0.0000000 0.0000000 0.0000000 0.0000000 0.0000000 619.0910 0.2190414 10.00228 10.00258 0.2180031 611.3365 185.9198 185.9558 9.080421 .007024439
60.94584 630.4234 0.2165360 0.0000000 0.0000000 0.0000000 0.0000000 0.0000000 630.4234 0.2165360 10.00990 9.991609 0.2161285 622.6135 193.5884 193.3600 9.187759 .002273366
62.09582 641.7569 0.2139038 0.0000000 0.0000000 0.0000000 0.0000000 0.0000000 641.7569 0.2139038 10.01504 9.998626 0.2136894 633.9000 200.6156 200.5636 9.322150 .001832912
63.24584 653.0772 0.2123558 0.0000000 0.0000000 0.0000000 0.0000000 0.0000000 653.0772 0.2123558 9.986609 9.995116 0.2122254 645.1816 208.4975 208.0581 9.414726 8.51025E-4
64.39584 664.3934 0.2118148 0.0000000 0.0000000 0.0000000 0.0000000 0.0000000 664.3934 0.2118149 9.983844 9.962274 0.2117554 656.4670 215.9846 215.9527 9.507758 1.36173E-4
65.54582 675.7001 0.2118698 0.0000000 0.0000000 0.0000000 0.0000000 0.0000000 675.7001 0.2118698 9.994572 10.00160 0.2118782 667.7453 224.2703 223.8820 9.613914 -3.8131E-4
66.69582 686.9993 0.2122276 0.0000000 0.0000000 0.0000000 0.0000000 0.0000000 686.9993 0.2122276 10.01380 10.00657 0.2123184 679.0168 232.6662 232.3552 9.713318 -2.6816E-4
67.84582 698.2461 0.2127235 0.0000000 0.0000000 0.0000000 0.0000000 0.0000000 698.2461 0.2127235 9.988797 10.01224 0.2128357 690.2400 241.0392 240.4551 9.805488 -5.0845E-4
67.98750 699.6116 0.2127564 0.0000000 0.0000000 0.0000000 0.0000000 0.0000000 699.6116 0.2127564 9.990218 9.998910 0.2127998 691.6038 241.8234 241.6670 9.826072 -5.7526E-4